   Elapsed time;   ECG1
      (seconds);   (mV)
          0.000;  0.160
          0.008;  0.180
          0.016;  0.170
          0.023;  0.180
          0.031;  0.180
          0.039;  0.170
          0.047;  0.170
          0.055;  0.130
          0.062;  0.130
          0.070;  0.100
          0.078;  0.060
          0.086;  0.040
          0.094;  0.010
          0.102; -0.010
          0.109; -0.020
          0.117; -0.020
          0.125; -0.020
          0.133; -0.030
          0.141;  0.000
          0.148;  0.000
          0.156;  0.000
          0.164;  0.020
          0.172;  0.030
          0.180;  0.040
          0.188;  0.030
          0.195;  0.070
          0.203;  0.050
          0.211;  0.060
          0.219;  0.050
          0.227;  0.050
          0.234;  0.050
          0.242;  0.050
          0.250;  0.060
          0.258;  0.050
          0.266;  0.050
          0.273;  0.030
          0.281;  0.030
          0.289;  0.030
          0.297;  0.020
          0.305;  0.020
          0.312;  0.020
          0.320;  0.010
          0.328;  0.000
          0.336;  0.000
          0.344;  0.000
          0.352; -0.010
          0.359;  0.000
          0.367; -0.010
          0.375; -0.010
          0.383; -0.010
          0.391; -0.010
          0.398; -0.010
          0.406; -0.020
          0.414; -0.020
          0.422; -0.010
          0.430; -0.010
          0.438;  0.000
          0.445;  0.060
          0.453;  0.050
          0.461;  0.090
          0.469;  0.110
          0.477;  0.160
          0.484;  0.130
          0.492;  0.050
          0.500;  0.030
          0.508; -0.090
          0.516; -0.120
          0.523; -0.090
          0.531; -0.080
          0.539; -0.090
          0.547; -0.080
          0.555; -0.080
          0.562; -0.070
          0.570; -0.080
          0.578;  0.090
          0.586;  0.450
          0.594;  0.790
          0.602; -1.170
          0.609; -1.910
          0.617; -1.640
          0.625; -1.280
          0.633; -0.520
          0.641; -0.150
          0.648; -0.030
          0.656; -0.030
          0.664;  0.010
          0.672;  0.030
          0.680;  0.050
          0.688;  0.060
          0.695;  0.080
          0.703;  0.090
          0.711;  0.100
          0.719;  0.130
          0.727;  0.140
          0.734;  0.160
          0.742;  0.150
          0.750;  0.180
          0.758;  0.200
          0.766;  0.220
          0.773;  0.220
          0.781;  0.260
          0.789;  0.280
          0.797;  0.280
          0.805;  0.300
          0.812;  0.290
          0.820;  0.290
          0.828;  0.270
          0.836;  0.240
          0.844;  0.210
          0.852;  0.170
          0.859;  0.130
          0.867;  0.100
          0.875;  0.050
          0.883;  0.030
          0.891;  0.040
          0.898;  0.050
          0.906;  0.040
          0.914;  0.050
          0.922;  0.060
          0.930;  0.060
          0.938;  0.060
          0.945;  0.060
          0.953;  0.050
          0.961;  0.040
          0.969;  0.070
          0.977;  0.060
          0.984;  0.070
          0.992;  0.060
          1.000;  0.080
          1.008;  0.080
          1.016;  0.080
          1.023;  0.090
          1.031;  0.100
          1.039;  0.100
          1.047;  0.090
          1.055;  0.090
          1.062;  0.090
          1.070;  0.080
          1.078;  0.070
          1.086;  0.070
          1.094;  0.060
          1.102;  0.050
          1.109;  0.050
          1.117;  0.050
          1.125;  0.020
          1.133;  0.040
          1.141;  0.030
          1.148;  0.010
          1.156;  0.010
          1.164;  0.000
          1.172;  0.010
          1.180;  0.000
          1.188;  0.000
          1.195;  0.000
          1.203;  0.000
          1.211; -0.020
          1.219; -0.010
          1.227; -0.010
          1.234; -0.020
          1.242; -0.020
          1.250; -0.020
          1.258; -0.020
          1.266;  0.020
          1.273;  0.020
          1.281;  0.060
          1.289;  0.060
          1.297;  0.140
          1.305;  0.100
          1.312;  0.020
          1.320; -0.020
          1.328; -0.130
          1.336; -0.130
          1.344; -0.130
          1.352; -0.100
          1.359; -0.100
          1.367; -0.100
          1.375; -0.110
          1.383; -0.110
          1.391; -0.090
          1.398;  0.160
          1.406;  0.430
          1.414;  0.750
          1.422; -1.520
          1.430; -1.930
          1.438; -1.360
          1.445; -1.110
          1.453; -0.440
          1.461; -0.080
          1.469; -0.060
          1.477; -0.040
          1.484;  0.000
          1.492;  0.020
          1.500;  0.050
          1.508;  0.060
          1.516;  0.060
          1.523;  0.090
          1.531;  0.090
          1.539;  0.100
          1.547;  0.120
          1.555;  0.140
          1.562;  0.140
          1.570;  0.160
          1.578;  0.190
          1.586;  0.210
          1.594;  0.210
          1.602;  0.240
          1.609;  0.250
          1.617;  0.250
          1.625;  0.250
          1.633;  0.260
          1.641;  0.240
          1.648;  0.210
          1.656;  0.190
          1.664;  0.170
          1.672;  0.110
          1.680;  0.070
          1.688;  0.050
          1.695;  0.010
          1.703;  0.010
          1.711; -0.010
          1.719;  0.010
          1.727;  0.000
          1.734;  0.010
          1.742;  0.020
          1.750;  0.010
          1.758;  0.010
          1.766;  0.020
          1.773;  0.020
          1.781;  0.010
          1.789;  0.010
          1.797;  0.020
          1.805;  0.020
          1.812;  0.020
          1.820;  0.020
          1.828;  0.020
          1.836;  0.020
          1.844;  0.020
          1.852;  0.030
          1.859;  0.030
          1.867;  0.020
          1.875;  0.020
          1.883;  0.020
          1.891;  0.030
          1.898;  0.010
          1.906;  0.010
          1.914;  0.000
          1.922; -0.020
          1.930;  0.000
          1.938; -0.010
          1.945; -0.020
          1.953; -0.020
          1.961; -0.020
          1.969; -0.020
          1.977; -0.030
          1.984; -0.040
          1.992; -0.050
          2.000; -0.050
          2.008; -0.060
          2.016; -0.060
          2.023; -0.060
          2.031; -0.060
          2.039; -0.060
          2.047; -0.060
          2.055; -0.060
          2.062; -0.060
          2.070; -0.020
          2.078; -0.020
          2.086; -0.010
          2.094;  0.030
          2.102;  0.080
          2.109;  0.090
          2.117;  0.000
          2.125; -0.050
          2.133; -0.130
          2.141; -0.180
          2.148; -0.160
          2.156; -0.150
          2.164; -0.130
          2.172; -0.130
          2.180; -0.140
          2.188; -0.130
          2.195; -0.140
          2.203; -0.040
          2.211;  0.340
          2.219;  0.710
          2.227; -1.050
          2.234; -1.870
          2.242; -1.580
          2.250; -1.250
          2.258; -0.540
          2.266; -0.170
          2.273; -0.070
          2.281; -0.070
          2.289; -0.030
          2.297; -0.010
          2.305;  0.010
          2.312;  0.020
          2.320;  0.030
          2.328;  0.040
          2.336;  0.040
          2.344;  0.040
          2.352;  0.060
          2.359;  0.080
          2.367;  0.080
          2.375;  0.090
          2.383;  0.100
          2.391;  0.110
          2.398;  0.120
          2.406;  0.140
          2.414;  0.150
          2.422;  0.170
          2.430;  0.150
          2.438;  0.160
          2.445;  0.140
          2.453;  0.120
          2.461;  0.120
          2.469;  0.080
          2.477;  0.040
          2.484;  0.030
          2.492;  0.010
          2.500; -0.020
          2.508; -0.030
          2.516; -0.010
          2.523; -0.030
          2.531; -0.010
          2.539;  0.000
          2.547;  0.010
          2.555;  0.010
          2.562;  0.020
          2.570;  0.020
          2.578;  0.010
          2.586;  0.000
          2.594;  0.000
          2.602;  0.010
          2.609;  0.010
          2.617;  0.020
          2.625;  0.010
          2.633;  0.010
          2.641;  0.030
          2.648;  0.030
          2.656;  0.010
          2.664;  0.020
          2.672;  0.010
          2.680;  0.030
          2.688;  0.010
          2.695; -0.010
          2.703;  0.010
          2.711;  0.010
          2.719;  0.000
          2.727; -0.010
          2.734; -0.010
          2.742; -0.010
          2.750; -0.020
          2.758; -0.010
          2.766; -0.010
          2.773; -0.020
          2.781; -0.050
          2.789; -0.020
          2.797; -0.030
          2.805; -0.020
          2.812; -0.050
          2.820; -0.030
          2.828; -0.040
          2.836; -0.040
          2.844; -0.010
          2.852;  0.030
          2.859; -0.020
          2.867;  0.070
          2.875;  0.060
          2.883;  0.130
          2.891;  0.100
          2.898;  0.030
          2.906; -0.020
          2.914; -0.120
          2.922; -0.140
          2.930; -0.150
          2.938; -0.110
          2.945; -0.130
          2.953; -0.130
          2.961; -0.140
          2.969; -0.120
          2.977; -0.140
          2.984;  0.080
          2.992;  0.340
          3.000;  0.670
          3.008; -0.810
          3.016; -1.640
          3.023; -1.350
          3.031; -1.110
          3.039; -0.610
          3.047; -0.210
          3.055; -0.110
          3.062; -0.090
          3.070; -0.060
          3.078; -0.030
          3.086; -0.030
          3.094;  0.000
          3.102;  0.000
          3.109;  0.010
          3.117;  0.020
          3.125;  0.040
          3.133;  0.050
          3.141;  0.040
          3.148;  0.060
          3.156;  0.080
          3.164;  0.080
          3.172;  0.100
          3.180;  0.120
          3.188;  0.140
          3.195;  0.150
          3.203;  0.170
          3.211;  0.170
          3.219;  0.170
          3.227;  0.160
          3.234;  0.150
          3.242;  0.140
          3.250;  0.100
          3.258;  0.100
          3.266;  0.060
          3.273;  0.020
          3.281;  0.000
          3.289;  0.010
          3.297; -0.020
          3.305; -0.020
          3.312; -0.010
          3.320; -0.020
          3.328;  0.010
          3.336;  0.000
          3.344;  0.000
          3.352;  0.010
          3.359;  0.010
          3.367;  0.010
          3.375;  0.020
          3.383;  0.020
          3.391;  0.030
          3.398;  0.020
          3.406;  0.030
          3.414;  0.030
          3.422;  0.020
          3.430;  0.030
          3.438;  0.020
          3.445;  0.010
          3.453;  0.010
          3.461;  0.010
          3.469; -0.010
          3.477;  0.000
          3.484;  0.000
          3.492;  0.010
          3.500; -0.020
          3.508;  0.000
          3.516; -0.010
          3.523; -0.020
          3.531; -0.010
          3.539; -0.010
          3.547; -0.020
          3.555; -0.020
          3.562; -0.020
          3.570; -0.020
          3.578; -0.020
          3.586; -0.030
          3.594; -0.020
          3.602; -0.020
          3.609; -0.040
          3.617; -0.020
          3.625;  0.020
          3.633;  0.040
          3.641;  0.040
          3.648;  0.080
          3.656;  0.120
          3.664;  0.150
          3.672;  0.060
          3.680;  0.010
          3.688; -0.050
          3.695; -0.140
          3.703; -0.110
          3.711; -0.120
          3.719; -0.110
          3.727; -0.100
          3.734; -0.100
          3.742; -0.080
          3.750; -0.100
          3.758; -0.030
          3.766;  0.350
          3.773;  0.610
          3.781; -0.460
          3.789; -1.880
          3.797; -1.900
          3.805; -1.250
          3.812; -0.630
          3.820; -0.260
          3.828; -0.030
          3.836; -0.040
          3.844;  0.000
          3.852;  0.020
          3.859;  0.040
          3.867;  0.050
          3.875;  0.070
          3.883;  0.070
          3.891;  0.090
          3.898;  0.100
          3.906;  0.120
          3.914;  0.110
          3.922;  0.150
          3.930;  0.150
          3.938;  0.180
          3.945;  0.190
          3.953;  0.210
          3.961;  0.220
          3.969;  0.240
          3.977;  0.250
          3.984;  0.260
          3.992;  0.260
          4.000;  0.240
          4.008;  0.230
          4.016;  0.190
          4.023;  0.170
          4.031;  0.130
          4.039;  0.090
          4.047;  0.040
          4.055;  0.000
          4.062;  0.000
          4.070; -0.010
          4.078; -0.020
          4.086; -0.020
          4.094;  0.000
          4.102;  0.000
          4.109;  0.010
          4.117;  0.000
          4.125;  0.000
          4.133; -0.010
          4.141;  0.010
          4.148;  0.000
          4.156;  0.000
          4.164;  0.020
          4.172;  0.010
          4.180;  0.020
          4.188;  0.030
          4.195;  0.030
          4.203;  0.050
          4.211;  0.050
          4.219;  0.050
          4.227;  0.050
          4.234;  0.050
          4.242;  0.040
          4.250;  0.030
          4.258;  0.040
          4.266;  0.020
          4.273;  0.030
          4.281;  0.010
          4.289;  0.020
          4.297;  0.000
          4.305;  0.010
          4.312;  0.010
          4.320;  0.010
          4.328; -0.010
          4.336; -0.010
          4.344;  0.000
          4.352; -0.020
          4.359; -0.010
          4.367; -0.010
          4.375; -0.010
          4.383; -0.020
          4.391; -0.010
          4.398; -0.020
          4.406; -0.020
          4.414; -0.020
          4.422; -0.020
          4.430;  0.020
          4.438;  0.050
          4.445;  0.020
          4.453;  0.090
          4.461;  0.100
          4.469;  0.160
          4.477;  0.070
          4.484;  0.010
          4.492; -0.050
          4.500; -0.120
          4.508; -0.100
          4.516; -0.100
          4.523; -0.080
          4.531; -0.070
          4.539; -0.090
          4.547; -0.100
          4.555; -0.090
          4.562; -0.050
          4.570;  0.340
          4.578;  0.580
          4.586; -0.420
          4.594; -1.840
          4.602; -1.800
          4.609; -1.220
          4.617; -0.570
          4.625; -0.220
          4.633; -0.040
          4.641; -0.030
          4.648; -0.020
          4.656;  0.010
          4.664;  0.020
          4.672;  0.050
          4.680;  0.050
          4.688;  0.040
          4.695;  0.060
          4.703;  0.080
          4.711;  0.080
          4.719;  0.110
          4.727;  0.110
          4.734;  0.120
          4.742;  0.140
          4.750;  0.140
          4.758;  0.180
          4.766;  0.180
          4.773;  0.210
          4.781;  0.210
          4.789;  0.220
          4.797;  0.220
          4.805;  0.220
          4.812;  0.190
          4.820;  0.180
          4.828;  0.160
          4.836;  0.140
          4.844;  0.090
          4.852;  0.040
          4.859;  0.020
          4.867;  0.000
          4.875;  0.010
          4.883;  0.020
          4.891;  0.010
          4.898;  0.020
          4.906;  0.030
          4.914;  0.030
          4.922;  0.040
          4.930;  0.030
          4.938;  0.040
          4.945;  0.030
          4.953;  0.030
          4.961;  0.020
          4.969;  0.040
          4.977;  0.040
          4.984;  0.030
          4.992;  0.040
          5.000;  0.040
          5.008;  0.040
          5.016;  0.040
          5.023;  0.050
          5.031;  0.060
          5.039;  0.040
          5.047;  0.040
          5.055;  0.040
          5.062;  0.020
          5.070;  0.020
          5.078;  0.020
          5.086;  0.010
          5.094;  0.010
          5.102;  0.000
          5.109; -0.010
          5.117; -0.020
          5.125; -0.020
          5.133; -0.010
          5.141; -0.020
          5.148; -0.030
          5.156; -0.020
          5.164; -0.030
          5.172; -0.030
          5.180; -0.040
          5.188; -0.030
          5.195; -0.030
          5.203; -0.040
          5.211; -0.050
          5.219; -0.050
          5.227; -0.030
          5.234; -0.040
          5.242;  0.010
          5.250;  0.030
          5.258;  0.010
          5.266;  0.060
          5.273;  0.090
          5.281;  0.140
          5.289;  0.040
          5.297; -0.010
          5.305; -0.070
          5.312; -0.140
          5.320; -0.120
          5.328; -0.100
          5.336; -0.080
          5.344; -0.080
          5.352; -0.100
          5.359; -0.060
          5.367; -0.100
          5.375; -0.050
          5.383;  0.340
          5.391;  0.590
          5.398; -0.410
          5.406; -1.790
          5.414; -1.750
          5.422; -1.160
          5.430; -0.560
          5.438; -0.210
          5.445; -0.010
          5.453; -0.010
          5.461;  0.010
          5.469;  0.040
          5.477;  0.050
          5.484;  0.070
          5.492;  0.090
          5.500;  0.080
          5.508;  0.090
          5.516;  0.090
          5.523;  0.100
          5.531;  0.110
          5.539;  0.130
          5.547;  0.130
          5.555;  0.140
          5.562;  0.160
          5.570;  0.160
          5.578;  0.190
          5.586;  0.180
          5.594;  0.200
          5.602;  0.210
          5.609;  0.210
          5.617;  0.190
          5.625;  0.170
          5.633;  0.160
          5.641;  0.150
          5.648;  0.120
          5.656;  0.090
          5.664;  0.050
          5.672;  0.030
          5.680;  0.010
          5.688;  0.020
          5.695;  0.020
          5.703;  0.020
          5.711;  0.040
          5.719;  0.030
          5.727;  0.030
          5.734;  0.020
          5.742;  0.050
          5.750;  0.040
          5.758;  0.040
          5.766;  0.040
          5.773;  0.040
          5.781;  0.040
          5.789;  0.040
          5.797;  0.060
          5.805;  0.060
          5.812;  0.070
          5.820;  0.050
          5.828;  0.070
          5.836;  0.070
          5.844;  0.060
          5.852;  0.060
          5.859;  0.070
          5.867;  0.050
          5.875;  0.060
          5.883;  0.030
          5.891;  0.020
          5.898;  0.020
          5.906;  0.030
          5.914;  0.020
          5.922;  0.010
          5.930;  0.020
          5.938;  0.010
          5.945;  0.000
          5.953;  0.000
          5.961;  0.000
          5.969;  0.010
          5.977; -0.020
          5.984; -0.010
          5.992; -0.010
          6.000; -0.020
          6.008; -0.020
          6.016; -0.020
          6.023; -0.010
          6.031; -0.020
          6.039; -0.020
          6.047;  0.030
          6.055;  0.050
          6.062;  0.010
          6.070;  0.090
          6.078;  0.130
          6.086;  0.140
          6.094;  0.070
          6.102;  0.020
          6.109; -0.050
          6.117; -0.110
          6.125; -0.090
          6.133; -0.090
          6.141; -0.090
          6.148; -0.100
          6.156; -0.100
          6.164; -0.090
          6.172; -0.120
          6.180; -0.060
          6.188;  0.260
          6.195;  0.560
          6.203; -0.050
          6.211; -1.590
          6.219; -1.530
          6.227; -1.150
          6.234; -0.620
          6.242; -0.300
          6.250; -0.040
          6.258; -0.050
          6.266; -0.030
          6.273;  0.000
          6.281;  0.030
          6.289;  0.020
          6.297;  0.040
          6.305;  0.060
          6.312;  0.080
          6.320;  0.070
          6.328;  0.090
          6.336;  0.100
          6.344;  0.090
          6.352;  0.130
          6.359;  0.130
          6.367;  0.150
          6.375;  0.140
          6.383;  0.160
          6.391;  0.180
          6.398;  0.180
          6.406;  0.190
          6.414;  0.190
          6.422;  0.190
          6.430;  0.170
          6.438;  0.170
          6.445;  0.160
          6.453;  0.130
          6.461;  0.120
          6.469;  0.090
          6.477;  0.060
          6.484;  0.030
